Data from VictorTetra_Absorbance__4__00004.txt Node

Date: Thu Oct 10 15:44:19 EDT 2024
User: earladmin
Spectrometer: FLCH01037
Trigger mode: 0
Integration Time (sec): 1.000000E-1
Scans to average: 5
Electric dark correction enabled: true
Nonlinearity correction enabled: false
Boxcar width: 2
XAxis mode: Wavelengths
Number of Pixels in Spectrum: 2048
>>>>>Begin Spectral Data<<<<<
178.246	0.14
178.631	0.54
179.016	0.82
179.401	0.2
179.785	0.12
180.17	-0.65
180.554	1.17
180.939	0.03
181.323	0.03
181.708	-0.03
182.092	-0
182.477	-0.1
182.861	-0
183.245	-0.24
183.63	0.15
184.014	-0
184.398	-0.2
184.782	-0.15
185.167	-0.03
185.551	-0.22
185.935	0.22
186.319	-0.06
186.703	-0.28
187.087	-0.26
187.471	-0
187.855	-0.58
188.238	-0.41
188.622	-0
189.006	0.24
189.39	-0.16
189.774	0.1
190.157	-0
190.541	-0.14
190.925	0.02
191.308	0.5
191.692	0.44
192.075	-0
192.459	-0.84
192.842	-0
193.226	-0
193.609	-0.55
193.992	0.59
194.376	0.47
194.759	-0
195.142	0.13
195.525	0.18
195.909	1.12
196.292	0.19
196.675	-0
197.058	0.13
197.441	-0
197.824	0.14
198.207	-0
198.59	-0.09
198.973	0.08
199.356	0.32
199.738	0.57
200.121	0.35
200.504	-0
200.887	-0
201.269	0.27
201.652	-0
202.035	0
202.417	0.99
202.8	-0.44
203.182	0.02
203.565	0.48
203.947	-0
204.329	1.08
204.712	-0.17
205.094	-0
205.476	0.45
205.859	-0.08
206.241	0.78
206.623	0.31
207.005	0.28
207.387	0.17
207.769	-0.58
208.151	-0
208.533	-0
208.915	0.03
209.297	-0.01
209.679	0.34
210.061	0.79
210.443	-0
210.825	-0
211.206	0.33
211.588	-0.86
211.97	1.5
212.351	0.25
212.733	0.65
213.115	-0
213.496	0.21
213.878	0.55
214.259	0.55
214.641	-0
215.022	-0
215.403	1.44
215.785	-0
216.166	-0.74
216.547	-0
216.928	-0
217.31	-0
217.691	0.55
218.072	-0.15
218.453	-0
218.834	-0.19
219.215	0.05
219.596	0.91
219.977	0.74
220.358	-0.27
220.739	0.36
221.119	-0.04
221.5	-0.27
221.881	1.03
222.262	0.23
222.642	0.57
223.023	-0
223.403	-0.33
223.784	0.38
224.165	-0
224.545	0.07
224.926	-0
225.306	-0.04
225.686	0.23
226.067	-0.17
226.447	0.44
226.827	0.53
227.207	0.37
227.588	-0
227.968	-0
228.348	1.21
228.728	0.66
229.108	0.29
229.488	1.18
229.868	-1.09
230.248	0.52
230.628	0.31
231.008	-0
231.388	-0
231.767	0.28
232.147	-0.19
232.527	0.33
232.907	0.22
233.286	0.41
233.666	-0
234.046	-0
234.425	-0
234.805	0.24
235.184	0.62
235.564	0.09
235.943	0.08
236.322	0.1
236.702	0.17
237.081	-0.09
237.46	0.88
237.839	-0.02
238.219	0.48
238.598	0.26
238.977	0.3
239.356	0.59
239.735	-0.03
240.114	-0
240.493	0.17
240.872	0.37
241.251	0.38
241.629	0.27
242.008	0.63
242.387	0.41
242.766	0.31
243.145	-0.07
243.523	0.29
243.902	0.39
244.28	-0
244.659	-0
245.037	0.67
245.416	-0
245.794	0.81
246.173	-0
246.551	0.54
246.93	0.41
247.308	0.88
247.686	-0
248.064	1.02
248.442	-0
248.821	1.19
249.199	1.3
249.577	0.8
249.955	0.58
250.333	0.56
250.711	-0
251.089	0.8
251.467	-0
251.844	0.62
252.222	0.37
252.6	0.87
252.978	2.68
253.356	0.61
253.733	-0
254.111	1.14
254.488	0.69
254.866	0.94
255.243	1.19
255.621	1.11
255.998	0.58
256.376	1.23
256.753	3.3
257.13	-0
257.508	0.8
257.885	-0
258.262	-0
258.639	0.97
259.017	0.76
259.394	-0
259.771	1.48
260.148	-0
260.525	1.78
260.902	-0
261.279	1.28
261.656	0.86
262.032	1.22
262.409	0.85
262.786	1.23
263.163	0.83
263.539	2.14
263.916	2.57
264.293	1.62
264.669	1.02
265.046	0.98
265.422	1.34
265.799	-0
266.175	1.13
266.552	1.75
266.928	2.37
267.304	1.55
267.681	1.13
268.057	1.36
268.433	1.52
268.809	-0
269.185	-0
269.561	1.74
269.937	1.26
270.313	1.35
270.689	-0
271.065	1.62
271.441	1.49
271.817	-0
272.193	-0
272.569	1.06
272.945	1.52
273.32	-0
273.696	-0
274.072	1.15
274.447	-0
274.823	-0
275.198	-0
275.574	1.34
275.949	1.17
276.325	1.33
276.7	1.13
277.075	1.39
277.451	2.22
277.826	1.35
278.201	-0
278.576	1.37
278.951	1.4
279.326	1.25
279.702	1.59
280.077	1.49
280.452	-0
280.827	1.73
281.201	3.61
281.576	1.67
281.951	2.34
282.326	-0
282.701	1.71
283.075	1.51
283.45	1.52
283.825	1.75
284.199	1.74
284.574	1.44
284.949	2.4
285.323	1.59
285.697	-0
286.072	2.33
286.446	1.84
286.821	1.52
287.195	1.81
287.569	1.72
287.943	-0
288.318	1.99
288.692	1.53
289.066	-0
289.44	2.15
289.814	2.34
290.188	1.88
290.562	1.75
290.936	1.68
291.31	-0
291.684	2.45
292.057	1.91
292.431	1.47
292.805	2.27
293.179	2.86
293.552	1.88
293.926	1.87
294.299	-0
294.673	1.64
295.046	1.55
295.42	-0
295.793	2.14
296.167	1.66
296.54	1.72
296.913	1.93
297.287	-0
297.66	-0
298.033	-0
298.406	2.2
298.779	2.27
299.152	1.62
299.525	2.8
299.898	2.59
300.271	2.07
300.644	1.44
301.017	1.69
301.39	1.85
301.763	1.63
302.136	1.5
302.508	1.57
302.881	1.68
303.254	1.5
303.626	1.37
303.999	1.39
304.371	1.46
304.744	1.41
305.116	1.44
305.489	1.42
305.861	1.52
306.233	1.35
306.606	1.47
306.978	1.33
307.35	1.27
307.722	1.29
308.095	1.58
308.467	1.39
308.839	1.33
309.211	1.38
309.583	1.51
309.955	1.22
310.327	1.36
310.698	1.65
311.07	1.25
311.442	1.54
311.814	1.22
312.185	1.34
312.557	1.54
312.929	1.56
313.3	1.21
313.672	1.53
314.043	1.38
314.415	1.35
314.786	1.17
315.158	1.33
315.529	1.22
315.9	1.17
316.272	1.26
316.643	1.22
317.014	1.16
317.385	1.16
317.756	1.05
318.127	1.08
318.499	1.01
318.87	1.06
319.24	1.03
319.611	1.06
319.982	1.01
320.353	1
320.724	0.92
321.095	0.88
321.465	0.89
321.836	0.83
322.207	0.82
322.577	0.82
322.948	0.82
323.318	0.79
323.689	0.74
324.059	0.7
324.43	0.68
324.8	0.7
325.171	0.66
325.541	0.67
325.911	0.68
326.281	0.59
326.651	0.65
327.022	0.58
327.392	0.59
327.762	0.57
328.132	0.51
328.502	0.53
328.872	0.5
329.242	0.49
329.611	0.5
329.981	0.48
330.351	0.48
330.721	0.45
331.09	0.45
331.46	0.43
331.83	0.4
332.199	0.41
332.569	0.41
332.938	0.39
333.308	0.36
333.677	0.38
334.047	0.33
334.416	0.34
334.785	0.34
335.154	0.33
335.524	0.31
335.893	0.33
336.262	0.34
336.631	0.32
337	0.31
337.369	0.32
337.738	0.31
338.107	0.3
338.476	0.3
338.845	0.3
339.214	0.3
339.582	0.28
339.951	0.29
340.32	0.26
340.689	0.29
341.057	0.26
341.426	0.26
341.794	0.28
342.163	0.28
342.531	0.27
342.9	0.26
343.268	0.28
343.636	0.27
344.005	0.26
344.373	0.29
344.741	0.28
345.109	0.27
345.477	0.28
345.845	0.27
346.214	0.29
346.582	0.27
346.95	0.27
347.317	0.28
347.685	0.28
348.053	0.28
348.421	0.28
348.789	0.28
349.156	0.29
349.524	0.3
349.892	0.3
350.259	0.31
350.627	0.33
350.995	0.3
351.362	0.32
351.729	0.32
352.097	0.32
352.464	0.34
352.832	0.35
353.199	0.35
353.566	0.32
353.933	0.35
354.3	0.36
354.668	0.36
355.035	0.38
355.402	0.38
355.769	0.36
356.136	0.38
356.503	0.4
356.869	0.4
357.236	0.41
357.603	0.42
357.97	0.4
358.337	0.41
358.703	0.4
359.07	0.41
359.436	0.41
359.803	0.4
360.17	0.41
360.536	0.4
360.902	0.4
361.269	0.4
361.635	0.42
362.001	0.41
362.368	0.46
362.734	0.45
363.1	0.44
363.466	0.45
363.832	0.45
364.198	0.46
364.564	0.46
364.93	0.46
365.296	0.48
365.662	0.51
366.028	0.48
366.394	0.5
366.76	0.48
367.125	0.51
367.491	0.5
367.857	0.51
368.222	0.52
368.588	0.55
368.953	0.51
369.319	0.53
369.684	0.54
370.05	0.54
370.415	0.55
370.781	0.58
371.146	0.58
371.511	0.57
371.876	0.57
372.241	0.6
372.607	0.6
372.972	0.62
373.337	0.59
373.702	0.59
374.067	0.61
374.431	0.65
374.796	0.62
375.161	0.61
375.526	0.6
375.891	0.6
376.255	0.64
376.62	0.64
376.985	0.64
377.349	0.66
377.714	0.64
378.078	0.65
378.443	0.63
378.807	0.63
379.172	0.63
379.536	0.63
379.9	0.63
380.264	0.62
380.629	0.68
380.993	0.69
381.357	0.66
381.721	0.65
382.085	0.69
382.449	0.7
382.813	0.65
383.177	0.64
383.541	0.65
383.905	0.66
384.268	0.7
384.632	0.69
384.996	0.7
385.359	0.7
385.723	0.69
386.087	0.72
386.45	0.72
386.814	0.73
387.177	0.7
387.541	0.74
387.904	0.71
388.267	0.72
388.631	0.72
388.994	0.74
389.357	0.73
389.72	0.74
390.083	0.73
390.446	0.73
390.809	0.73
391.172	0.75
391.535	0.79
391.898	0.76
392.261	0.74
392.624	0.73
392.987	0.76
393.35	0.78
393.712	0.73
394.075	0.72
394.437	0.73
394.8	0.7
395.163	0.75
395.525	0.73
395.888	0.69
396.25	0.73
396.612	0.67
396.975	0.66
397.337	0.67
397.699	0.69
398.061	0.65
398.424	0.69
398.786	0.65
399.148	0.68
399.51	0.64
399.872	0.64
400.234	0.61
400.596	0.62
400.957	0.62
401.319	0.63
401.681	0.63
402.043	0.59
402.404	0.58
402.766	0.59
403.128	0.6
403.489	0.61
403.851	0.58
404.212	0.56
404.574	0.59
404.935	0.59
405.296	0.55
405.658	0.57
406.019	0.56
406.38	0.54
406.741	0.56
407.103	0.54
407.464	0.56
407.825	0.57
408.186	0.57
408.547	0.59
408.908	0.57
409.268	0.57
409.629	0.56
409.99	0.54
410.351	0.57
410.712	0.6
411.072	0.59
411.433	0.58
411.793	0.59
412.154	0.58
412.515	0.6
412.875	0.59
413.235	0.59
413.596	0.59
413.956	0.57
414.316	0.59
414.677	0.59
415.037	0.56
415.397	0.53
415.757	0.51
416.117	0.51
416.477	0.51
416.837	0.51
417.197	0.5
417.557	0.49
417.917	0.46
418.277	0.44
418.637	0.44
418.996	0.41
419.356	0.41
419.716	0.4
420.075	0.37
420.435	0.35
420.794	0.32
421.154	0.32
421.513	0.3
421.873	0.29
422.232	0.3
422.591	0.27
422.95	0.27
423.31	0.25
423.669	0.24
424.028	0.26
424.387	0.25
424.746	0.21
425.105	0.23
425.464	0.22
425.823	0.19
426.182	0.21
426.541	0.2
426.899	0.2
427.258	0.18
427.617	0.2
427.976	0.21
428.334	0.19
428.693	0.2
429.051	0.19
429.41	0.2
429.768	0.17
430.127	0.2
430.485	0.2
430.843	0.21
431.202	0.21
431.56	0.23
431.918	0.24
432.276	0.24
432.634	0.23
432.992	0.26
433.35	0.26
433.708	0.28
434.066	0.28
434.424	0.28
434.782	0.28
435.14	0.33
435.497	0.35
435.855	0.36
436.213	0.37
436.57	0.38
436.928	0.41
437.285	0.44
437.643	0.47
438	0.43
438.358	0.49
438.715	0.51
439.072	0.49
439.43	0.5
439.787	0.54
440.144	0.51
440.501	0.54
440.858	0.5
441.215	0.52
441.572	0.51
441.929	0.49
442.286	0.46
442.643	0.46
443	0.45
443.357	0.43
443.714	0.41
444.07	0.41
444.427	0.37
444.783	0.37
445.14	0.34
445.497	0.33
445.853	0.29
446.209	0.28
446.566	0.26
446.922	0.25
447.279	0.22
447.635	0.22
447.991	0.18
448.347	0.18
448.703	0.16
449.059	0.14
449.415	0.14
449.771	0.13
450.127	0.11
450.483	0.12
450.839	0.12
451.195	0.12
451.551	0.1
451.906	0.11
452.262	0.11
452.618	0.1
452.973	0.1
453.329	0.09
453.685	0.08
454.04	0.11
454.395	0.08
454.751	0.09
455.106	0.07
455.461	0.07
455.817	0.08
456.172	0.08
456.527	0.1
456.882	0.1
457.237	0.1
457.592	0.07
457.947	0.09
458.302	0.13
458.657	0.13
459.012	0.11
459.367	0.12
459.721	0.13
460.076	0.13
460.431	0.14
460.785	0.16
461.14	0.18
461.495	0.18
461.849	0.18
462.204	0.2
462.558	0.21
462.912	0.24
463.267	0.24
463.621	0.25
463.975	0.24
464.329	0.25
464.683	0.25
465.038	0.28
465.392	0.29
465.746	0.32
466.1	0.34
466.454	0.36
466.807	0.4
467.161	0.4
467.515	0.42
467.869	0.47
468.222	0.46
468.576	0.51
468.93	0.55
469.283	0.55
469.637	0.57
469.99	0.58
470.344	0.55
470.697	0.55
471.05	0.58
471.404	0.52
471.757	0.52
472.11	0.47
472.463	0.48
472.816	0.45
473.169	0.39
473.522	0.38
473.875	0.34
474.228	0.3
474.581	0.28
474.934	0.26
475.287	0.24
475.64	0.2
475.992	0.18
476.345	0.15
476.698	0.14
477.05	0.12
477.403	0.11
477.755	0.09
478.108	0.09
478.46	0.06
478.812	0.07
479.165	0.06
479.517	0.05
479.869	0.04
480.221	0.02
480.574	0.03
480.926	0.03
481.278	0.01
481.63	0.02
481.982	0.02
482.333	-0
482.685	0.01
483.037	0.01
483.389	0.02
483.741	-0.01
484.092	-0.01
484.444	0.01
484.796	0.02
485.147	-0.01
485.499	-0
485.85	-0.01
486.201	0
486.553	-0.01
486.904	-0.02
487.255	-0.01
487.607	-0.01
487.958	-0.02
488.309	-0.01
488.66	-0.02
489.011	-0.01
489.362	-0.01
489.713	-0.02
490.064	-0.01
490.415	-0.03
490.765	-0.02
491.116	-0.01
491.467	-0.01
491.818	-0.01
492.168	0.01
492.519	-0.04
492.869	-0.01
493.22	-0.01
493.57	-0
493.921	-0.01
494.271	-0.02
494.621	-0.02
494.972	-0.02
495.322	-0.01
495.672	-0.01
496.022	-0.02
496.372	-0.02
496.722	-0.02
497.072	-0.01
497.422	-0.01
497.772	-0.05
498.122	-0.04
498.472	-0.02
498.822	-0.02
499.171	-0.02
499.521	-0.02
499.871	-0.02
500.22	-0.03
500.57	-0.01
500.919	-0.01
501.269	-0.02
501.618	-0.01
501.967	-0.02
502.317	-0.01
502.666	-0.03
503.015	-0.02
503.364	-0.01
503.713	-0.03
504.063	-0.02
504.412	-0.03
504.761	-0.03
505.11	-0.01
505.458	-0.02
505.807	-0.02
506.156	-0.02
506.505	-0.02
506.854	-0.02
507.202	-0.03
507.551	-0.03
507.899	-0
508.248	-0.01
508.596	-0.02
508.945	-0.03
509.293	-0.02
509.642	-0.03
509.99	-0.03
510.338	-0.01
510.686	-0.01
511.034	-0.03
511.383	-0.02
511.731	-0.03
512.079	-0.02
512.427	-0.02
512.775	-0.02
513.122	-0.03
513.47	-0.02
513.818	-0
514.166	-0
514.513	-0.01
514.861	-0.01
515.209	-0.04
515.556	-0.02
515.904	-0.02
516.251	-0.01
516.599	-0.03
516.946	-0.04
517.293	0.04
517.641	-0.03
517.988	-0.04
518.335	-0.04
518.682	-0.01
519.029	-0.02
519.376	-0.04
519.723	-0.02
520.07	-0
520.417	-0.03
520.764	-0.02
521.111	-0.02
521.458	-0.01
521.804	-0.02
522.151	-0.03
522.498	-0.03
522.844	-0.02
523.191	-0.02
523.537	-0.03
523.884	-0.03
524.23	-0.02
524.576	-0.02
524.923	-0.02
525.269	-0.03
525.615	-0.02
525.961	-0.02
526.307	-0.02
526.653	-0.01
526.999	-0.04
527.345	-0.03
527.691	-0.02
528.037	-0.04
528.383	-0.02
528.729	-0.02
529.075	-0.02
529.42	-0.03
529.766	-0.04
530.112	-0.03
530.457	-0.02
530.803	-0.02
531.148	-0.03
531.493	-0.02
531.839	-0.02
532.184	-0.03
532.529	-0.01
532.875	-0.02
533.22	-0.01
533.565	-0.02
533.91	-0.03
534.255	-0.03
534.6	-0.03
534.945	-0.03
535.29	-0.02
535.635	-0.01
535.98	-0.01
536.324	-0.02
536.669	-0.02
537.014	-0.01
537.358	-0.02
537.703	-0.03
538.047	-0.02
538.392	-0.03
538.736	-0.02
539.081	-0.02
539.425	-0.02
539.769	-0.02
540.113	-0.02
540.458	-0.03
540.802	-0.02
541.146	-0.01
541.49	-0.03
541.834	-0.02
542.178	-0.02
542.522	-0.03
542.866	-0.01
543.209	-0.03
543.553	-0.03
543.897	-0.03
544.241	-0.04
544.584	-0.03
544.928	-0.03
545.271	-0.01
545.615	-0.01
545.958	-0.03
546.302	-0.03
546.645	-0.02
546.988	-0.04
547.331	-0.02
547.675	-0.03
548.018	-0.03
548.361	-0.02
548.704	-0.04
549.047	-0.04
549.39	-0.01
549.733	-0.02
550.076	-0.02
550.418	-0.04
550.761	-0.02
551.104	-0.02
551.447	-0.02
551.789	-0.03
552.132	-0.05
552.474	-0.01
552.817	-0.01
553.159	-0.01
553.502	-0.03
553.844	-0.02
554.186	-0.03
554.528	-0.03
554.871	-0.03
555.213	-0.01
555.555	-0.02
555.897	-0.03
556.239	-0.02
556.581	-0.03
556.923	-0.02
557.265	-0.01
557.606	-0.02
557.948	-0.02
558.29	-0.02
558.632	-0
558.973	-0.01
559.315	-0.02
559.656	-0.02
559.998	-0.03
560.339	-0.03
560.68	-0
561.022	-0
561.363	-0.02
561.704	-0.04
562.046	-0.04
562.387	-0.02
562.728	-0.03
563.069	-0.03
563.41	-0.02
563.751	-0.02
564.092	-0.03
564.432	-0.04
564.773	-0.02
565.114	-0.01
565.455	-0.03
565.795	-0.02
566.136	-0.03
566.477	-0.03
566.817	-0.02
567.157	-0.04
567.498	-0.03
567.838	-0.04
568.179	-0.04
568.519	-0.03
568.859	-0.02
569.199	-0
569.539	-0.02
569.879	-0.02
570.219	-0.07
570.559	-0.04
570.899	-0.02
571.239	-0.02
571.579	-0.04
571.919	-0.03
572.259	-0.02
572.598	-0.01
572.938	-0.01
573.278	-0.07
573.617	-0.04
573.957	-0.02
574.296	-0.02
574.635	-0.06
574.975	-0.04
575.314	0.01
575.653	0.01
575.993	-0
576.332	-0.04
576.671	-0.06
577.01	-0.02
577.349	-0.02
577.688	-0.04
578.027	-0.08
578.366	-0.08
578.704	-0.01
579.043	0.03
579.382	0.01
579.721	-0.03
580.059	-0.04
580.398	-0.03
580.736	-0.03
581.075	-0.06
581.413	-0.07
581.752	-0.06
582.09	-0.06
582.428	0.01
582.766	0.01
583.105	0.01
583.443	-0.02
583.781	-0.04
584.119	-0.05
584.457	-0.04
584.795	-0.02
585.133	-0.02
585.47	-0.01
585.808	-0.01
586.146	-0.01
586.484	-0.03
586.821	-0.06
587.159	-0.04
587.496	-0.01
587.834	-0.02
588.171	-0.03
588.509	-0.03
588.846	-0.05
589.183	-0.02
589.521	-0.05
589.858	-0.06
590.195	-0.03
590.532	0.01
590.869	0.01
591.206	-0
591.543	-0.02
591.88	-0.06
592.217	-0.06
592.554	-0.03
592.89	-0
593.227	-0.01
593.564	-0.03
593.9	-0.07
594.237	-0.05
594.573	-0.04
594.91	-0.03
595.246	-0
595.583	-0.04
595.919	-0.07
596.255	-0.02
596.592	0.01
596.928	-0.02
597.264	-0.03
597.6	-0
597.936	0.01
598.272	-0.02
598.608	-0.03
598.944	-0.03
599.279	-0.03
599.615	-0.02
599.951	-0.04
600.287	-0.06
600.622	-0.06
600.958	-0.03
601.293	0.01
601.629	0.01
601.964	-0.02
602.3	-0.06
602.635	-0.04
602.97	-0.03
603.305	-0.01
603.641	-0.02
603.976	-0.01
604.311	-0.05
604.646	-0.03
604.981	0
605.316	0.01
605.651	-0.02
605.986	-0.05
606.32	-0.02
606.655	-0.03
606.99	-0.05
607.324	-0.04
607.659	-0
607.993	-0.01
608.328	-0.06
608.662	-0.03
608.997	-0.02
609.331	-0.02
609.665	-0.03
610	-0.04
610.334	-0.03
610.668	-0.01
611.002	0
611.336	-0.03
611.67	-0.05
612.004	-0.05
612.338	-0.01
612.672	0.03
613.005	0.01
613.339	-0.01
613.673	-0.05
614.006	-0.05
614.34	-0.02
614.674	-0.01
615.007	-0.03
615.341	-0.05
615.674	-0.04
616.007	-0.02
616.341	-0.03
616.674	-0.05
617.007	-0.07
617.34	-0.03
617.673	-0
618.006	0
618.339	-0.03
618.672	-0.07
619.005	-0.09
619.338	-0.05
619.671	0.02
620.003	0.03
620.336	-0.01
620.669	-0.05
621.001	-0.02
621.334	-0.02
621.666	-0.05
621.999	-0.02
622.331	0.01
622.663	-0.03
622.996	-0.03
623.328	-0.02
623.66	-0.02
623.992	-0.04
624.324	-0.03
624.656	-0.02
624.988	0.02
625.32	0
625.652	-0.03
625.984	-0.07
626.316	-0.06
626.647	-0.04
626.979	0.01
627.311	-0
627.642	-0.01
627.974	-0.02
628.305	-0.03
628.637	-0
628.968	-0.01
629.299	-0.01
629.631	-0.06
629.962	-0.05
630.293	-0.02
630.624	-0.01
630.955	-0.03
631.286	-0.06
631.617	-0.03
631.948	0
632.279	-0.02
632.61	-0.01
632.941	-0.02
633.271	-0.08
633.602	-0.04
633.932	-0.01
634.263	0.01
634.594	-0.02
634.924	-0.03
635.254	-0.03
635.585	-0.08
635.915	-0.02
636.245	-0.04
636.576	-0.03
636.906	0.03
637.236	-0.05
637.566	0
637.896	-0.04
638.226	0.01
638.556	-0
638.886	-0.02
639.215	-0.02
639.545	0.01
639.875	-0.01
640.204	-0.06
640.534	-0.09
640.864	-0.05
641.193	-0.01
641.522	-0
641.852	-0.01
642.181	-0.01
642.511	-0.06
642.84	-0.02
643.169	-0.01
643.498	-0.05
643.827	-0.02
644.156	0.01
644.485	-0.01
644.814	-0.03
645.143	-0.08
645.472	-0.07
645.801	-0.02
646.129	0.02
646.458	0.02
646.787	-0
647.115	-0.01
647.444	0.03
647.772	-0.05
648.101	-0.04
648.429	-0.08
648.757	-0.04
649.085	-0.01
649.414	-0.04
649.742	-0.03
650.07	-0.09
650.398	-0.04
650.726	-0.04
651.054	-0.01
651.382	-0.01
651.71	-0.02
652.038	-0.13
652.365	-0.06
652.693	-0.29
653.021	-0.41
653.348	-0.14
653.676	0.1
654.003	0.14
654.331	0.05
654.658	-0.14
654.985	-0.18
655.313	-0.11
655.64	-0.08
655.967	-0.02
656.294	-0.01
656.621	-0.04
656.948	-0.08
657.275	-0.08
657.602	-0.05
657.929	-0.03
658.256	-0.08
658.583	-0.02
658.909	-0.07
659.236	-0.04
659.563	0.02
659.889	-0.04
660.216	0.03
660.542	0.03
660.869	-0.05
661.195	0.03
661.521	0.01
661.847	-0.02
662.174	-0.02
662.5	-0.01
662.826	-0.01
663.152	-0.04
663.478	0.04
663.804	0.03
664.13	-0.03
664.456	-0
664.781	-0.02
665.107	-0.04
665.433	-0.01
665.758	-0.05
666.084	0
666.41	-0
666.735	-0.02
667.06	0
667.386	-0.01
667.711	-0.07
668.036	-0.02
668.362	-0.06
668.687	-0.07
669.012	-0.08
669.337	-0.02
669.662	0
669.987	0.03
670.312	0.04
670.637	-0
670.961	-0.03
671.286	-0.06
671.611	-0.04
671.935	-0.05
672.26	-0.09
672.585	-0.02
672.909	-0.02
673.233	-0.06
673.558	-0
673.882	-0
674.206	-0.03
674.531	-0.04
674.855	-0.05
675.179	-0.05
675.503	-0.06
675.827	0.02
