Data from VictorAnthra_Absorbance__1__00021.txt Node

Date: Thu Oct 10 15:49:13 EDT 2024
User: earladmin
Spectrometer: FLCH01037
Trigger mode: 0
Integration Time (sec): 1.000000E-1
Scans to average: 5
Electric dark correction enabled: true
Nonlinearity correction enabled: false
Boxcar width: 2
XAxis mode: Wavelengths
Number of Pixels in Spectrum: 2048
>>>>>Begin Spectral Data<<<<<
178.246	-0
178.631	-0
179.016	-0
179.401	-0.01
179.785	0.17
180.17	-0.6
180.554	-0
180.939	-0.04
181.323	0.09
181.708	-0
182.092	-0
182.477	-0.01
182.861	1.19
183.245	-0.21
183.63	0.31
184.014	-0
184.398	-0.27
184.782	-0.11
185.167	0.01
185.551	-0.28
185.935	0.33
186.319	0
186.703	-0.06
187.087	0.15
187.471	-0
187.855	-0.45
188.238	-0.53
188.622	-0
189.006	0.46
189.39	-0.15
189.774	0.11
190.157	-0
190.541	-0.09
190.925	0.07
191.308	0.23
191.692	0.45
192.075	1.06
192.459	-0.85
192.842	-0
193.226	-0
193.609	-0.49
193.992	0.63
194.376	0.29
194.759	0.73
195.142	0.11
195.525	0.29
195.909	2.12
196.292	0.23
196.675	-0
197.058	0.18
197.441	-0
197.824	0.37
198.207	-0
198.59	-0.16
198.973	0.15
199.356	0.74
199.738	0.8
200.121	0.27
200.504	-0
200.887	-0
201.269	0.2
201.652	-0
202.035	0.07
202.417	-0
202.8	-0.7
203.182	0.21
203.565	1.32
203.947	-0
204.329	-0
204.712	-0.22
205.094	-0
205.476	0.59
205.859	-0.06
206.241	1.48
206.623	0.36
207.005	-0
207.387	0.2
207.769	-0.46
208.151	-0
208.533	-0
208.915	0.16
209.297	-0.06
209.679	0.65
210.061	1.18
210.443	-0
210.825	-0
211.206	-0.03
211.588	-0.76
211.97	0.97
212.351	0.15
212.733	0.62
213.115	0.88
213.496	0.24
213.878	0.89
214.259	-0
214.641	-0
215.022	-0
215.403	1.25
215.785	-0
216.166	-0.76
216.547	-0
216.928	-0
217.31	0.9
217.691	1.03
218.072	-0.21
218.453	-0
218.834	-0
219.215	0.01
219.596	0.06
219.977	0.13
220.358	-0.13
220.739	1.02
221.119	-0
221.5	-0
221.881	0.45
222.262	0.31
222.642	0.56
223.023	-0
223.403	-0.39
223.784	0.13
224.165	0.06
224.545	-0.27
224.926	-0
225.306	-0.13
225.686	-0.02
226.067	-0.19
226.447	0.47
226.827	0.48
227.207	0.19
227.588	-0
227.968	-0
228.348	0.57
228.728	0.51
229.108	0.01
229.488	0.71
229.868	-1.18
230.248	0.71
230.628	0.45
231.008	-0
231.388	-0
231.767	0.67
232.147	-0.34
232.527	0.63
232.907	-0
233.286	1.51
233.666	-0
234.046	0.26
234.425	-0
234.805	0.34
235.184	0.83
235.564	0.14
235.943	0.16
236.322	0.4
236.702	0.04
237.081	0.58
237.46	-0
237.839	0.17
238.219	0.84
238.598	0.42
238.977	0.44
239.356	1.22
239.735	0.09
240.114	-0
240.493	0.28
240.872	1.05
241.251	0.47
241.629	0.39
242.008	0.68
242.387	0.47
242.766	0.5
243.145	0.11
243.523	0.7
243.902	0.54
244.28	-0
244.659	-0
245.037	1.02
245.416	-0
245.794	1.27
246.173	-0
246.551	0.63
246.93	0.49
247.308	1.46
247.686	-0
248.064	-0
248.442	-0
248.821	-0
249.199	-0
249.577	1.02
249.955	0.67
250.333	0.6
250.711	-0
251.089	0.83
251.467	-0
251.844	0.71
252.222	0.39
252.6	0.91
252.978	-0
253.356	0.72
253.733	-0
254.111	1.37
254.488	0.8
254.866	1.46
255.243	1.48
255.621	1.71
255.998	0.62
256.376	1.34
256.753	1.86
257.13	1.32
257.508	0.55
257.885	0.94
258.262	0.42
258.639	0.25
259.017	0.13
259.394	-0.01
259.771	0.04
260.148	-0.11
260.525	-0.15
260.902	-0.25
261.279	-0.26
261.656	-0.25
262.032	-0.16
262.409	-0.3
262.786	-0.31
263.163	-0.28
263.539	-0.26
263.916	-0.24
264.293	-0.31
264.669	-0.29
265.046	-0.29
265.422	-0.33
265.799	-0.32
266.175	-0.35
266.552	-0.28
266.928	-0.28
267.304	-0.28
267.681	-0.25
268.057	-0.31
268.433	-0.29
268.809	-0.26
269.185	-0.25
269.561	-0.23
269.937	-0.24
270.313	-0.2
270.689	-0.22
271.065	-0.23
271.441	-0.22
271.817	-0.23
272.193	-0.17
272.569	-0.22
272.945	-0.19
273.32	-0.16
273.696	-0.16
274.072	-0.14
274.447	-0.16
274.823	-0.15
275.198	-0.12
275.574	-0.14
275.949	-0.1
276.325	-0.09
276.7	-0.1
277.075	-0.07
277.451	-0.07
277.826	-0.06
278.201	-0.04
278.576	-0.04
278.951	-0.04
279.326	-0.04
279.702	-0.02
280.077	0
280.452	-0.01
280.827	-0.01
281.201	0
281.576	0.01
281.951	0.02
282.326	0.03
282.701	0.01
283.075	0.06
283.45	0.05
283.825	0.05
284.199	0.07
284.574	0.06
284.949	0.05
285.323	0.07
285.697	0.08
286.072	0.1
286.446	0.11
286.821	0.11
287.195	0.13
287.569	0.14
287.943	0.11
288.318	0.13
288.692	0.14
289.066	0.17
289.44	0.17
289.814	0.18
290.188	0.18
290.562	0.19
290.936	0.19
291.31	0.24
291.684	0.21
292.057	0.25
292.431	0.21
292.805	0.23
293.179	0.24
293.552	0.24
293.926	0.25
294.299	0.24
294.673	0.23
295.046	0.23
295.42	0.27
295.793	0.25
296.167	0.27
296.54	0.26
296.913	0.28
297.287	0.28
297.66	0.3
298.033	0.29
298.406	0.3
298.779	0.31
299.152	0.3
299.525	0.31
299.898	0.33
300.271	0.32
300.644	0.31
301.017	0.34
301.39	0.35
301.763	0.33
302.136	0.35
302.508	0.37
302.881	0.38
303.254	0.39
303.626	0.39
303.999	0.43
304.371	0.43
304.744	0.42
305.116	0.44
305.489	0.44
305.861	0.47
306.233	0.47
306.606	0.5
306.978	0.49
307.35	0.48
307.722	0.48
308.095	0.54
308.467	0.51
308.839	0.5
309.211	0.51
309.583	0.53
309.955	0.49
310.327	0.52
310.698	0.52
311.07	0.49
311.442	0.53
311.814	0.5
312.185	0.51
312.557	0.55
312.929	0.56
313.3	0.51
313.672	0.56
314.043	0.56
314.415	0.57
314.786	0.56
315.158	0.59
315.529	0.6
315.9	0.6
316.272	0.64
316.643	0.65
317.014	0.65
317.385	0.67
317.756	0.66
318.127	0.68
318.499	0.68
318.87	0.73
319.24	0.75
319.611	0.82
319.982	0.84
320.353	0.88
320.724	0.87
321.095	0.87
321.465	0.91
321.836	0.87
322.207	0.89
322.577	0.91
322.948	0.96
323.318	0.93
323.689	0.88
324.059	0.83
324.43	0.81
324.8	0.85
325.171	0.81
325.541	0.85
325.911	0.89
326.281	0.75
326.651	0.87
327.022	0.76
327.392	0.82
327.762	0.78
328.132	0.73
328.502	0.8
328.872	0.79
329.242	0.79
329.611	0.81
329.981	0.83
330.351	0.87
330.721	0.86
331.09	0.9
331.46	0.88
331.83	0.91
332.199	0.99
332.569	1.08
332.938	1.06
333.308	1.06
333.677	1.16
334.047	0.99
334.416	1.09
334.785	1.13
335.154	1.06
335.524	1.19
335.893	1.33
336.262	1.38
336.631	1.35
337	1.21
337.369	2.15
337.738	1.61
338.107	1.54
338.476	1.56
338.845	1.41
339.214	1.54
339.582	1.86
339.951	1.43
340.32	1.17
340.689	1.38
341.057	1.2
341.426	1.06
341.794	1.11
342.163	1.13
342.531	0.99
342.9	0.98
343.268	1.06
343.636	0.96
344.005	0.95
344.373	0.98
344.741	0.99
345.109	0.97
345.477	0.95
345.845	0.92
346.214	1.03
346.582	0.95
346.95	0.99
347.317	0.94
347.685	1.02
348.053	1.01
348.421	1.08
348.789	1.06
349.156	1.18
349.524	1.18
349.892	1.3
350.259	1.55
350.627	1.59
350.995	1.25
351.362	1.41
351.729	1.47
352.097	1.58
352.464	1.38
352.832	2.08
353.199	2.09
353.566	1.36
353.933	1.96
354.3	1.59
354.668	1.89
355.035	1.67
355.402	1.68
355.769	2.01
356.136	1.59
356.503	2.11
356.869	1.95
357.236	1.95
357.603	1.9
357.97	1.76
358.337	1.56
358.703	1.33
359.07	1.42
359.436	1.33
359.803	1.04
360.17	1.03
360.536	1.04
360.902	0.93
361.269	0.91
361.635	0.9
362.001	0.85
362.368	0.88
362.734	0.82
363.1	0.77
363.466	0.75
363.832	0.76
364.198	0.73
364.564	0.76
364.93	0.75
365.296	0.75
365.662	0.8
366.028	0.76
366.394	0.79
366.76	0.78
367.125	0.87
367.491	0.87
367.857	0.88
368.222	0.96
368.588	1.03
368.953	0.97
369.319	1.01
369.684	1.08
370.05	1.12
370.415	1.07
370.781	1.27
371.146	1.27
371.511	1.33
371.876	1.22
372.241	1.39
372.607	1.42
372.972	1.58
373.337	1.4
373.702	1.37
374.067	1.56
374.431	-0
374.796	1.64
375.161	1.69
375.526	1.52
375.891	1.49
376.255	1.72
376.62	1.61
376.985	1.36
377.349	1.29
377.714	1.11
378.078	1.07
378.443	0.93
378.807	0.83
379.172	0.76
379.536	0.69
379.9	0.64
380.264	0.58
380.629	0.59
380.993	0.55
381.357	0.5
381.721	0.47
382.085	0.46
382.449	0.44
382.813	0.4
383.177	0.38
383.541	0.37
383.905	0.37
384.268	0.37
384.632	0.36
384.996	0.35
385.359	0.35
385.723	0.34
386.087	0.33
386.45	0.33
386.814	0.34
387.177	0.32
387.541	0.33
387.904	0.32
388.267	0.31
388.631	0.31
388.994	0.32
389.357	0.32
389.72	0.31
390.083	0.32
390.446	0.32
390.809	0.31
391.172	0.3
391.535	0.33
391.898	0.32
392.261	0.3
392.624	0.29
392.987	0.31
393.35	0.32
393.712	0.3
394.075	0.31
394.437	0.32
394.8	0.31
395.163	0.34
395.525	0.33
395.888	0.32
396.25	0.32
396.612	0.3
396.975	0.31
397.337	0.31
397.699	0.32
398.061	0.3
398.424	0.32
398.786	0.3
399.148	0.32
399.51	0.31
399.872	0.31
400.234	0.29
400.596	0.29
400.957	0.3
401.319	0.31
401.681	0.33
402.043	0.3
402.404	0.31
402.766	0.32
403.128	0.32
403.489	0.33
403.851	0.32
404.212	0.3
404.574	0.32
404.935	0.33
405.296	0.32
405.658	0.33
406.019	0.32
406.38	0.3
406.741	0.31
407.103	0.3
407.464	0.31
407.825	0.32
408.186	0.32
408.547	0.33
408.908	0.32
409.268	0.31
409.629	0.31
409.99	0.3
410.351	0.32
410.712	0.34
411.072	0.34
411.433	0.32
411.793	0.32
412.154	0.32
412.515	0.34
412.875	0.33
413.235	0.33
413.596	0.34
413.956	0.33
414.316	0.35
414.677	0.35
415.037	0.33
415.397	0.32
415.757	0.31
416.117	0.33
416.477	0.33
416.837	0.35
417.197	0.35
417.557	0.35
417.917	0.35
418.277	0.34
418.637	0.36
418.996	0.34
419.356	0.35
419.716	0.35
420.075	0.34
420.435	0.33
420.794	0.31
421.154	0.33
421.513	0.32
421.873	0.32
422.232	0.35
422.591	0.33
422.95	0.34
423.31	0.33
423.669	0.33
424.028	0.37
424.387	0.36
424.746	0.34
425.105	0.37
425.464	0.37
425.823	0.35
426.182	0.37
426.541	0.37
426.899	0.37
427.258	0.36
427.617	0.37
427.976	0.39
428.334	0.36
428.693	0.36
429.051	0.35
429.41	0.35
429.768	0.32
430.127	0.34
430.485	0.34
430.843	0.35
431.202	0.35
431.56	0.36
431.918	0.38
432.276	0.36
432.634	0.34
432.992	0.37
433.35	0.36
433.708	0.37
434.066	0.35
434.424	0.34
434.782	0.33
435.14	0.36
435.497	0.37
435.855	0.36
436.213	0.36
436.57	0.35
436.928	0.36
437.285	0.36
437.643	0.37
438	0.32
438.358	0.37
438.715	0.37
439.072	0.35
439.43	0.36
439.787	0.39
440.144	0.36
440.501	0.39
440.858	0.35
441.215	0.37
441.572	0.37
441.929	0.37
442.286	0.35
442.643	0.36
443	0.36
443.357	0.36
443.714	0.36
444.07	0.39
444.427	0.36
444.783	0.38
445.14	0.38
445.497	0.38
445.853	0.35
446.209	0.36
446.566	0.36
446.922	0.37
447.279	0.35
447.635	0.37
447.991	0.36
448.347	0.36
448.703	0.35
449.059	0.36
449.415	0.36
449.771	0.36
450.127	0.34
450.483	0.37
450.839	0.38
451.195	0.37
451.551	0.36
451.906	0.38
452.262	0.38
452.618	0.36
452.973	0.38
453.329	0.37
453.685	0.36
454.04	0.38
454.395	0.36
454.751	0.37
455.106	0.36
455.461	0.35
455.817	0.37
456.172	0.35
456.527	0.38
456.882	0.38
457.237	0.38
457.592	0.36
457.947	0.37
458.302	0.42
458.657	0.4
459.012	0.37
459.367	0.36
459.721	0.36
460.076	0.35
460.431	0.36
460.785	0.37
461.14	0.38
461.495	0.38
461.849	0.37
462.204	0.38
462.558	0.38
462.912	0.4
463.267	0.39
463.621	0.38
463.975	0.36
464.329	0.36
464.683	0.35
465.038	0.37
465.392	0.36
465.746	0.38
466.1	0.37
466.454	0.38
466.807	0.39
467.161	0.37
467.515	0.37
467.869	0.39
468.222	0.35
468.576	0.37
468.93	0.39
469.283	0.38
469.637	0.39
469.99	0.4
470.344	0.37
470.697	0.38
471.05	0.41
471.404	0.38
471.757	0.39
472.11	0.37
472.463	0.4
472.816	0.4
473.169	0.37
473.522	0.39
473.875	0.38
474.228	0.38
474.581	0.38
474.934	0.39
475.287	0.4
475.64	0.38
475.992	0.38
476.345	0.37
476.698	0.38
477.05	0.39
477.403	0.39
477.755	0.39
478.108	0.39
478.46	0.36
478.812	0.39
479.165	0.39
479.517	0.38
479.869	0.38
480.221	0.37
480.574	0.38
480.926	0.39
481.278	0.38
481.63	0.39
481.982	0.4
482.333	0.38
482.685	0.39
483.037	0.4
483.389	0.41
483.741	0.38
484.092	0.37
484.444	0.4
484.796	0.4
485.147	0.38
485.499	0.38
485.85	0.36
486.201	0.38
486.553	0.38
486.904	0.36
487.255	0.37
487.607	0.38
487.958	0.38
488.309	0.39
488.66	0.38
489.011	0.38
489.362	0.39
489.713	0.38
490.064	0.39
490.415	0.36
490.765	0.38
491.116	0.4
491.467	0.39
491.818	0.38
492.168	0.41
492.519	0.37
492.869	0.39
493.22	0.4
493.57	0.4
493.921	0.39
494.271	0.39
494.621	0.38
494.972	0.39
495.322	0.39
495.672	0.38
496.022	0.37
496.372	0.39
496.722	0.37
497.072	0.4
497.422	0.39
497.772	0.36
498.122	0.37
498.472	0.38
498.822	0.39
499.171	0.39
499.521	0.38
499.871	0.38
500.22	0.37
500.57	0.4
500.919	0.41
501.269	0.4
501.618	0.4
501.967	0.38
502.317	0.39
502.666	0.38
503.015	0.38
503.364	0.38
503.713	0.37
504.063	0.38
504.412	0.37
504.761	0.37
505.11	0.39
505.458	0.39
505.807	0.39
506.156	0.39
506.505	0.38
506.854	0.38
507.202	0.37
507.551	0.38
507.899	0.4
508.248	0.39
508.596	0.38
508.945	0.38
509.293	0.37
509.642	0.38
509.99	0.39
510.338	0.4
510.686	0.4
511.034	0.38
511.383	0.38
511.731	0.37
512.079	0.39
512.427	0.39
512.775	0.39
513.122	0.38
513.47	0.39
513.818	0.43
514.166	0.42
514.513	0.42
514.861	0.4
515.209	0.37
515.556	0.39
515.904	0.38
516.251	0.39
516.599	0.37
516.946	0.35
517.293	0.54
517.641	0.38
517.988	0.35
518.335	0.38
518.682	0.4
519.029	0.39
519.376	0.38
519.723	0.4
520.07	0.4
520.417	0.38
520.764	0.39
521.111	0.39
521.458	0.4
521.804	0.38
522.151	0.39
522.498	0.39
522.844	0.39
523.191	0.39
523.537	0.39
523.884	0.38
524.23	0.38
524.576	0.4
524.923	0.4
525.269	0.38
525.615	0.4
525.961	0.4
526.307	0.41
526.653	0.41
526.999	0.38
527.345	0.4
527.691	0.39
528.037	0.4
528.383	0.39
528.729	0.38
529.075	0.39
529.42	0.4
529.766	0.38
530.112	0.4
530.457	0.4
530.803	0.39
531.148	0.4
531.493	0.4
531.839	0.41
532.184	0.4
532.529	0.43
532.875	0.39
533.22	0.4
533.565	0.4
533.91	0.38
534.255	0.39
534.6	0.38
534.945	0.4
535.29	0.38
535.635	0.42
535.98	0.4
536.324	0.42
536.669	0.4
537.014	0.41
537.358	0.39
537.703	0.4
538.047	0.4
538.392	0.39
538.736	0.4
539.081	0.4
539.425	0.38
539.769	0.41
540.113	0.41
540.458	0.39
540.802	0.4
541.146	0.42
541.49	0.39
541.834	0.4
542.178	0.4
542.522	0.39
542.866	0.43
543.209	0.38
543.553	0.4
543.897	0.41
544.241	0.38
544.584	0.4
544.928	0.41
545.271	0.42
545.615	0.41
545.958	0.37
546.302	0.38
546.645	0.38
546.988	0.37
547.331	0.38
547.675	0.38
548.018	0.38
548.361	0.39
548.704	0.38
549.047	0.4
549.39	0.43
549.733	0.42
550.076	0.41
550.418	0.39
550.761	0.42
551.104	0.42
551.447	0.4
551.789	0.39
552.132	0.37
552.474	0.4
552.817	0.42
553.159	0.41
553.502	0.39
553.844	0.39
554.186	0.39
554.528	0.4
554.871	0.4
555.213	0.42
555.555	0.38
555.897	0.38
556.239	0.4
556.581	0.39
556.923	0.42
557.265	0.41
557.606	0.44
557.948	0.43
558.29	0.44
558.632	0.45
558.973	0.44
559.315	0.4
559.656	0.41
559.998	0.4
560.339	0.41
560.68	0.44
561.022	0.43
561.363	0.42
561.704	0.4
562.046	0.37
562.387	0.4
562.728	0.39
563.069	0.39
563.41	0.4
563.751	0.4
564.092	0.4
564.432	0.4
564.773	0.41
565.114	0.43
565.455	0.42
565.795	0.43
566.136	0.42
566.477	0.42
566.817	0.45
567.157	0.42
567.498	0.43
567.838	0.42
568.179	0.42
568.519	0.44
568.859	0.44
569.199	0.45
569.539	0.42
569.879	0.42
570.219	0.37
570.559	0.41
570.899	0.43
571.239	0.45
571.579	0.43
571.919	0.42
572.259	0.43
572.598	0.44
572.938	0.43
573.278	0.36
573.617	0.39
573.957	0.41
574.296	0.43
574.635	0.41
574.975	0.44
575.314	0.48
575.653	0.49
575.993	0.45
576.332	0.4
576.671	0.38
577.01	0.39
577.349	0.4
577.688	0.38
578.027	0.37
578.366	0.39
578.704	0.49
579.043	0.51
579.382	0.48
579.721	0.42
580.059	0.38
580.398	0.37
580.736	0.36
581.075	0.33
581.413	0.34
581.752	0.36
582.09	0.39
582.428	0.46
582.766	0.47
583.105	0.46
583.443	0.42
583.781	0.39
584.119	0.37
584.457	0.39
584.795	0.41
585.133	0.44
585.47	0.44
585.808	0.43
586.146	0.41
586.484	0.39
586.821	0.36
587.159	0.37
587.496	0.39
587.834	0.41
588.171	0.39
588.509	0.4
588.846	0.38
589.183	0.41
589.521	0.4
589.858	0.42
590.195	0.46
590.532	0.47
590.869	0.49
591.206	0.45
591.543	0.41
591.88	0.36
592.217	0.35
592.554	0.38
592.89	0.41
593.227	0.4
593.564	0.39
593.9	0.36
594.237	0.39
594.573	0.42
594.91	0.42
595.246	0.46
595.583	0.43
595.919	0.41
596.255	0.44
596.592	0.48
596.928	0.45
597.264	0.43
597.6	0.45
597.936	0.45
598.272	0.39
598.608	0.38
598.944	0.38
599.279	0.37
599.615	0.38
599.951	0.37
600.287	0.35
600.622	0.37
600.958	0.42
601.293	0.46
601.629	0.46
601.964	0.43
602.3	0.38
602.635	0.42
602.97	0.43
603.305	0.45
603.641	0.44
603.976	0.44
604.311	0.41
604.646	0.43
604.981	0.45
605.316	0.44
605.651	0.41
605.986	0.37
606.32	0.38
606.655	0.37
606.99	0.35
607.324	0.38
607.659	0.41
607.993	0.4
608.328	0.37
608.662	0.39
608.997	0.41
609.331	0.42
609.665	0.43
610	0.41
610.334	0.4
610.668	0.43
611.002	0.45
611.336	0.41
611.67	0.4
612.004	0.42
612.338	0.45
612.672	0.47
613.005	0.44
613.339	0.41
613.673	0.36
614.006	0.34
614.34	0.38
614.674	0.38
615.007	0.37
615.341	0.37
615.674	0.37
616.007	0.4
616.341	0.39
616.674	0.39
617.007	0.35
617.34	0.4
617.673	0.45
618.006	0.48
618.339	0.38
618.672	0.35
619.005	0.37
619.338	0.41
619.671	0.48
620.003	0.47
620.336	0.42
620.669	0.38
621.001	0.39
621.334	0.4
621.666	0.38
621.999	0.39
622.331	0.46
622.663	0.41
622.996	0.38
623.328	0.4
623.66	0.39
623.992	0.39
624.324	0.38
624.656	0.41
624.988	0.44
625.32	0.44
625.652	0.37
625.984	0.34
626.316	0.36
626.647	0.39
626.979	0.44
627.311	0.45
627.642	0.43
627.974	0.38
628.305	0.38
628.637	0.39
628.968	0.43
629.299	0.42
629.631	0.35
629.962	0.36
630.293	0.41
630.624	0.37
630.955	0.38
631.286	0.38
631.617	0.39
631.948	0.41
632.279	0.41
632.61	0.39
632.941	0.43
633.271	0.38
633.602	0.42
633.932	0.44
634.263	0.49
634.594	0.45
634.924	0.4
635.254	0.38
635.585	0.33
635.915	0.42
636.245	0.39
636.576	0.41
636.906	0.43
637.236	0.34
637.566	0.36
637.896	0.37
638.226	0.42
638.556	0.4
638.886	0.38
639.215	0.41
639.545	0.46
639.875	0.38
640.204	0.35
640.534	0.31
640.864	0.42
641.193	0.43
641.522	0.45
641.852	0.38
642.181	0.42
642.511	0.36
642.84	0.42
643.169	0.41
643.498	0.34
643.827	0.35
644.156	0.4
644.485	0.4
644.814	0.44
645.143	0.36
645.472	0.37
645.801	0.41
646.129	0.52
646.458	0.52
646.787	0.48
647.115	0.46
647.444	0.44
647.772	0.38
648.101	0.37
648.429	0.33
648.757	0.39
649.085	0.44
649.414	0.37
649.742	0.38
650.07	0.32
650.398	0.46
650.726	0.43
651.054	0.43
651.382	0.38
651.71	0.35
652.038	0.32
652.365	0.33
652.693	0.21
653.021	0.22
653.348	0.47
653.676	0.66
654.003	0.66
654.331	0.51
654.658	0.26
654.985	0.11
655.313	0.09
655.64	0.13
655.967	0.26
656.294	0.31
656.621	0.31
656.948	0.3
657.275	0.3
657.602	0.33
657.929	0.35
658.256	0.4
658.583	0.45
658.909	0.38
659.236	0.47
659.563	0.45
659.889	0.41
660.216	0.41
660.542	0.44
660.869	0.37
661.195	0.5
661.521	0.49
661.847	0.49
662.174	0.48
662.5	0.37
662.826	0.39
663.152	0.41
663.478	0.5
663.804	0.47
664.13	0.4
664.456	0.4
664.781	0.37
665.107	0.37
665.433	0.41
665.758	0.36
666.084	0.41
666.41	0.42
666.735	0.42
667.06	0.45
667.386	0.45
667.711	0.39
668.036	0.41
668.362	0.43
668.687	0.34
669.012	0.44
669.337	0.46
669.662	0.45
669.987	0.49
670.312	0.5
670.637	0.41
670.961	0.38
671.286	0.36
671.611	0.36
671.935	0.31
672.26	0.36
672.585	0.39
672.909	0.41
673.233	0.4
673.558	0.42
673.882	0.5
674.206	0.44
674.531	0.51
674.855	0.47
675.179	0.43
675.503	0.4
675.827	0.51
676.151	0.47
676.475	0.4
676.799	0.42
677.123	0.46
677.446	0.46
677.77	0.46
678.094	0.4
678.417	0.37
678.741	0.32
679.064	0.46
679.388	0.48
679.711	0.56
680.034	0.45
680.358	0.37
680.681	0.38
681.004	0.29
681.327	0.36
681.65	0.49
681.973	0.5
682.296	0.51
682.619	0.48
682.942	0.42
683.265	0.47
683.587	0.49
683.91	0.41
684.233	0.33
684.555	0.3
